Time [s]	Input Load [N]	Output Load [N]
0.000000	  3.85	 -0.87
0.000010	  4.72	 -0.15
0.000020	  3.85	 -1.23
0.000030	  6.46	 -2.31
0.000040	  6.12	 -1.23
0.000050	  1.59	  0.21
0.000060	 14.30	  0.21
0.000070	 -6.77	 -0.51
0.000080	 77.34	 -0.51
0.000090	742.93	 -0.87
0.000100	2330.62	 -2.31
0.000110	4882.90	 -2.31
0.000120	7547.50	 -1.95
0.000130	8811.28	 -3.02
0.000140	8740.40	 -3.38
0.000150	8572.70	 -2.66
0.000160	8575.31	 -2.66
0.000170	8542.74	 -3.02
0.000180	8493.99	 -2.66
0.000190	8431.64	 -1.95
0.000200	8419.80	 -0.51
0.000210	8465.25	  1.28
0.000220	8476.05	  1.64
0.000230	8445.92	  1.28
0.000240	8414.75	  1.64
0.000250	8413.01	  1.28
0.000260	8453.76	  0.21
0.000270	8493.81	 -0.15
0.000280	8498.86	 -0.15
0.000290	8491.55	  0.21
0.000300	8466.47	 -0.15
0.000310	8404.65	 -1.59
0.000320	8373.47	 -1.95
0.000330	8424.84	 -1.59
0.000340	8476.57	 -3.38
0.000350	8488.76	 -0.15
0.000360	8463.34	  3.08
0.000370	8151.97	  3.44
0.000380	7228.29	113.98
0.000390	5539.77	443.10
0.000400	3430.34	995.10
0.000410	2127.21	1850.02
0.000420	2376.94	2870.76
0.000430	3306.01	3639.90
0.000440	3969.85	4120.11
0.000450	4372.48	4507.73
0.000460	4703.35	4779.79
0.000470	4968.75	4937.71
0.000480	5131.06	5055.79
0.000490	5181.38	5144.44
0.000500	5204.37	5211.92
0.000510	5261.32	5268.98
0.000520	5323.49	5313.49
0.000530	5386.88	5347.94
0.000540	5407.25	5379.89
0.000550	5356.92	5413.62
0.000560	5348.57	5446.28
0.000570	5396.63	5474.64
0.000580	5416.13	5499.04
0.000590	5476.03	5521.65
0.000600	5607.16	5542.11
0.000610	5654.01	5560.42
0.000620	5588.88	5578.36
0.000630	5573.90	5594.87
0.000640	5665.68	5611.02
0.000650	5769.12	5628.96
0.000660	5838.09	5645.48
0.000670	5883.36	5658.04
0.000680	5867.34	5669.52
0.000690	5832.34	5683.16
0.000700	5881.10	5698.59
0.000710	5977.58	5714.03
0.000720	6069.53	5729.10
0.000730	6146.32	5745.25
0.000740	6144.93	5763.56
0.000750	6067.61	5782.22
0.000760	5999.87	5798.37
0.000770	6000.05	5812.73
0.000780	6079.10	5827.08
0.000790	6164.61	5839.65
0.000800	6155.21	5850.42
0.000810	6101.74	5861.54
0.000820	6144.23	5871.95
0.000830	6259.34	5881.64
0.000840	6331.09	5892.40
0.000850	6350.25	5903.53
0.000860	6335.45	5913.94
0.000870	6292.95	5923.27
0.000880	6280.07	5932.60
0.000890	6325.86	5944.45
0.000900	6388.91	5957.36
0.000910	6414.86	5967.41
0.000920	6362.44	5974.95
0.000930	6250.64	5983.57
0.000940	6169.49	5994.33
0.000950	6178.72	6005.46
0.000960	6277.28	6015.15
0.000970	6411.55	6022.33
0.000980	6441.85	6028.79
0.000990	6299.40	6038.48
0.001000	6132.04	6050.68
0.001010	6087.98	6059.66
0.001020	6129.60	6065.04
0.001030	6190.91	6072.94
0.001040	6249.42	6081.55
0.001050	6237.40	6085.14
0.001060	6149.28	6090.52
0.001070	6095.13	6104.16
0.001080	6146.15	6117.44
0.001090	6261.08	6124.98
0.001100	6324.13	6132.16
0.001110	6271.71	6141.49
0.001120	6153.81	6152.97
0.001130	6043.58	6164.45
0.001140	6028.26	6171.99
0.001150	6141.97	6177.38
0.001160	6256.56	6183.48
0.001170	6280.77	6189.94
0.001180	6282.51	6198.19
0.001190	6290.51	6208.60
0.001200	6286.16	6217.22
0.001210	6317.68	6222.60
0.001220	6388.04	6226.19
0.001230	6409.28	6228.70
0.001240	6339.80	6231.93
0.001250	6239.67	6236.96
0.001260	6220.16	6242.34
0.001270	6327.61	6247.73
0.001280	6452.30	6254.90
0.001290	6459.79	6263.15
0.001300	6381.59	6269.62
0.001310	6343.63	6274.28
0.001320	6381.77	6279.31
0.001330	6448.81	6285.41
0.001340	6510.28	6289.72
0.001350	6545.46	6290.80
0.001360	6547.90	6292.59
0.001370	6535.72	6298.33
0.001380	6507.50	6307.30
0.001390	6482.42	6314.84
0.001400	6521.08	6316.28
0.001410	6593.88	6314.13
0.001420	6598.41	6313.41
0.001430	6522.31	6315.20
0.001440	6443.24	6319.86
0.001450	6417.47	6325.97
0.001460	6420.78	6329.91
0.001470	6422.17	6332.78
0.001480	6453.52	6337.45
0.001490	6505.06	6342.47
0.001500	6529.62	6343.19
0.001510	6553.65	6338.89
0.001520	6593.36	6337.81
0.001530	6621.05	6344.27
0.001540	6631.84	6352.52
0.001550	6606.07	6359.34
0.001560	6550.52	6364.73
0.001570	6527.35	6366.88
0.001580	6529.79	6367.96
0.001590	6510.11	6370.83
0.001600	6485.04	6373.34
0.001610	6475.81	6375.49
0.001620	6476.50	6377.65
0.001630	6485.73	6378.01
0.001640	6492.35	6378.37
0.001650	6479.64	6377.29
0.001660	6446.03	6370.83
0.001670	6415.38	6366.16
0.001680	6417.12	6369.40
0.001690	6440.81	6372.63
0.001700	6451.26	6374.42
0.001710	6437.85	6382.32
0.001720	6420.61	6394.16
0.001730	6428.10	6403.49
0.001740	6473.90	6408.15
0.001750	6544.77	6410.67
0.001760	6605.20	6414.62
0.001770	6632.36	6417.49
0.001780	6640.02	6418.56
0.001790	6635.67	6422.51
0.001800	6618.43	6425.74
0.001810	6611.64	6424.66
0.001820	6609.90	6427.53
0.001830	6583.60	6435.79
0.001840	6546.86	6440.46
0.001850	6518.65	6441.53
0.001860	6502.98	6446.56
0.001870	6511.86	6453.02
0.001880	6534.32	6451.94
0.001890	6548.95	6445.48
0.001900	6542.85	6442.97
0.001910	6504.54	6447.28
0.001920	6453.69	6453.38
0.001930	6432.62	6455.53
0.001940	6465.36	6454.10
0.001950	6539.54	6450.15
0.001960	6607.28	6443.33
0.001970	6629.75	6439.74
0.001980	6608.85	6442.97
0.001990	6565.49	6446.92
0.002000	6526.14	6449.07
0.002010	6505.41	6450.15
0.002020	6491.48	6448.00
0.002030	6482.08	6446.20
0.002040	6493.92	6447.64
0.002050	6532.23	6446.92
0.002060	6585.35	6446.56
0.002070	6627.49	6453.74
0.002080	6642.81	6458.05
0.002090	6647.69	6449.07
0.002100	6659.18	6439.02
0.002110	6671.55	6436.87
0.002120	6675.55	6436.15
0.002130	6666.15	6422.51
0.002140	6646.64	6393.80
0.002150	6618.26	6363.30
0.002160	6535.71	6301.92
0.002170	6429.83	6223.68
0.002180	6140.92	5958.09
0.002190	4998.53	4879.92
0.002200	3113.05	3026.88
0.002210	1580.91	1422.20
0.002220	567.91	437.00
0.002230	-184.05	-184.63
0.002240	-342.35	-383.47
0.002250	-113.87	-254.98
0.002260	-50.83	-121.46
0.002270	-118.92	-82.34
0.002280	-127.98	-88.80
0.002290	-119.79	-99.21
0.002300	-159.15	-105.67
