Time [s]	Input Load [N]	Output Load [N]
0.000000	 21.87	 18.83
0.000001	 26.57	 10.58
0.000002	 29.71	  4.83
0.000003	 29.53	 10.58
0.000004	 30.40	 13.45
0.000005	 31.10	  4.47
0.000006	 26.92	  1.96
0.000007	 23.44	  6.27
0.000008	 23.96	  7.35
0.000009	 24.48	 11.65
0.000010	 25.53	 14.17
0.000011	 26.92	  9.14
0.000012	 25.53	  8.06
0.000013	 23.78	  9.86
0.000014	 23.61	 10.58
0.000015	 23.09	 15.60
0.000016	 23.26	 18.83
0.000017	 23.44	 18.83
0.000018	 21.87	 21.34
0.000019	 22.74	 18.47
0.000020	 25.35	 12.73
0.000021	 26.57	 15.60
0.000022	 34.06	 17.04
0.000023	 51.65	 14.52
0.000024	 76.90	 19.19
0.000025	116.43	 19.55
0.000026	178.25	 10.58
0.000027	267.59	  6.63
0.000028	392.80	  5.55
0.000029	560.50	  6.27
0.000030	775.22	 13.09
0.000031	1039.75	 14.17
0.000032	1348.51	 10.58
0.000033	1689.83	 12.73
0.000034	2047.36	 12.73
0.000035	2397.05	 11.29
0.000036	2716.08	 15.24
0.000037	2987.22	 15.96
0.000038	3192.19	 15.24
0.000039	3320.37	 19.91
0.000040	3382.19	 20.27
0.000041	3402.91	 15.96
0.000042	3417.02	 16.68
0.000043	3471.00	 18.11
0.000044	3612.58	 17.40
0.000045	3879.03	 17.04
0.000046	4298.02	 13.09
0.000047	4880.19	  9.14
0.000048	5614.39	  9.14
0.000049	6479.89	  7.70
0.000050	7451.45	  7.70
0.000051	8499.64	 10.58
0.000052	9595.70	  9.14
0.000053	10709.36	  6.27
0.000054	11802.48	  4.83
0.000055	12825.42	  2.68
0.000056	13719.50	  5.55
0.000057	14430.00	 11.29
0.000058	14919.00	 10.94
0.000059	15173.95	 10.94
0.000060	15224.60	 15.24
0.000061	15148.85	 14.52
0.000062	15048.40	 12.73
0.000063	15018.63	 16.68
0.000064	15116.48	 16.32
0.000065	15331.35	 13.09
0.000066	15599.70	 17.04
0.000067	15846.65	 19.55
0.000068	16019.25	 18.11
0.000069	16112.60	 20.27
0.000070	16165.02	 18.47
0.000071	16221.45	 12.73
0.000072	16306.43	 11.65
0.000073	16412.33	  9.14
0.000074	16500.80	  6.99
0.000075	16530.72	 10.58
0.000076	16489.42	  9.50
0.000077	16400.78	  3.76
0.000078	16311.63	  1.60
0.000079	16260.63	  1.96
0.000080	16254.70	  6.27
0.000081	16278.20	 10.22
0.000082	16309.58	  6.99
0.000083	16331.00	  7.35
0.000084	16339.50	 13.09
0.000085	16342.27	 13.09
0.000086	16342.27	 13.45
0.000087	16337.22	 16.68
0.000088	16323.47	 15.60
0.000089	16302.05	 18.47
0.000090	16287.08	 23.14
0.000091	16294.23	 16.68
0.000092	16318.77	 12.01
0.000093	16340.55	 16.68
0.000094	16344.58	 16.32
0.000095	16328.20	 12.01
0.000096	16301.52	 10.58
0.000097	16282.00	  9.86
0.000098	16280.45	  9.50
0.000099	16293.02	  5.91
0.000100	16303.30	  3.40
0.000101	16297.17	  6.99
0.000102	16277.33	  5.91
0.000103	16254.88	  2.68
0.000104	16240.05	  6.63
0.000105	16240.05	  9.86
0.000106	16248.45	 11.65
0.000107	16250.73	 19.19
0.000108	16242.00	 23.86
0.000109	16227.38	 19.19
0.000110	16217.27	 15.60
0.000111	16220.73	 17.75
0.000112	16234.30	 19.55
0.000113	16244.08	 19.55
0.000114	16240.60	 18.83
0.000115	16229.98	 16.32
0.000116	16230.15	 12.01
0.000117	16251.57	  5.19
0.000118	16278.92	  1.24
0.000119	16288.33	  4.83
0.000120	16280.65	  6.63
0.000121	16276.30	  4.83
0.000122	16288.33	  5.55
0.000123	16309.05	  5.19
0.000124	16316.00	  3.40
0.000125	16299.98	  3.40
0.000126	16278.58	  4.12
0.000127	16271.07	  9.50
0.000128	16274.02	 19.55
0.000129	16267.43	 22.78
0.000130	16241.13	 18.83
0.000131	16209.08	 18.83
0.000132	16193.75	 19.19
0.000133	16198.80	 12.37
0.000134	16201.77	  9.86
0.000135	16184.17	 16.68
0.000136	16161.33	 20.27
0.000137	16163.08	 19.55
0.000138	16192.03	 19.91
0.000139	16219.73	 18.83
0.000140	16225.45	 14.17
0.000141	16222.83	  5.91
0.000142	16236.42	 -0.19
0.000143	16263.77	  1.96
0.000144	16277.17	  6.27
0.000145	16260.80	  7.35
0.000146	16234.15	  9.50
0.000147	16230.15	 11.29
0.000148	16249.85	  7.70
0.000149	16260.30	  4.47
0.000150	16246.35	  6.63
0.000151	16232.23	 11.65
0.000152	16242.67	 16.68
0.000153	16268.13	 18.11
0.000154	16280.15	 18.11
0.000155	16273.18	 18.11
0.000156	16270.20	 15.24
0.000157	16285.88	 15.96
0.000158	16303.48	 18.83
0.000159	16298.08	 15.96
0.000160	16275.08	 14.88
0.000161	16263.75	 14.88
0.000162	16271.42	 10.94
0.000163	16274.55	 13.09
0.000164	16259.02	 15.60
0.000165	16240.05	  8.78
0.000166	16236.60	  7.70
0.000167	16245.83	 13.09
0.000168	16247.20	  9.86
0.000169	16232.08	  7.70
0.000170	16222.32	 13.81
0.000171	16235.17	 12.37
0.000172	16249.98	  5.91
0.000173	16245.13	  9.14
0.000174	16235.02	 12.73
0.000175	16241.80	 10.22
0.000176	16261.13	 10.58
0.000177	16271.75	 10.58
0.000178	16265.67	  8.06
0.000179	16261.17	 10.22
0.000180	16274.05	 13.09
0.000181	16288.83	 12.73
0.000182	16285.00	 13.09
0.000183	16270.38	 11.29
0.000184	16264.63	  8.78
0.000185	16268.30	 10.94
0.000186	16265.00	 10.58
0.000187	16252.10	  5.55
0.000188	16247.73	  4.83
0.000189	16257.65	  9.86
0.000190	16265.50	 13.81
0.000191	16260.63	 12.37
0.000192	16253.15	 10.58
0.000193	16258.90	 12.37
0.000194	16273.50	  9.50
0.000195	16276.10	  3.40
0.000196	16266.17	  6.99
0.000197	16267.92	 13.45
0.000198	16288.33	 12.73
0.000199	16304.35	 12.01
0.000200	16301.90	 11.65
0.000201	16297.20	 10.22
0.000202	16306.25	 15.96
0.000203	16318.25	 22.06
0.000204	16316.15	 16.68
0.000205	16304.83	 12.01
0.000206	16302.90	 16.68
0.000207	16311.95	 17.40
0.000208	16313.70	 13.45
0.000209	16304.47	 13.81
0.000210	16302.05	 11.29
0.000211	16310.95	  4.83
0.000212	16314.77	  4.12
0.000213	16305.90	  7.35
0.000214	16297.20	 10.94
0.000215	16302.23	 10.94
0.000216	16312.15	  4.47
0.000217	16307.13	  2.32
0.000218	16294.08	  7.35
0.000219	16295.65	  9.14
0.000220	16306.45	  7.35
0.000221	16305.75	  8.06
0.000222	16296.35	 12.01
0.000223	16295.83	 13.45
0.000224	16304.00	 10.22
0.000225	16303.65	 13.45
0.000226	16290.92	 20.63
0.000227	16283.60	 16.32
0.000228	16289.52	 12.73
0.000229	16293.70	 19.55
0.000230	16286.58	 18.83
0.000231	16277.70	 13.09
0.000232	16278.38	 14.88
0.000233	16282.55	 12.01
0.000234	16275.23	  4.12
0.000235	16261.98	  6.27
0.000236	16261.48	 10.94
0.000237	16267.25	  8.78
0.000238	16258.52	  6.99
0.000239	16239.88	  4.83
0.000240	16228.23	  3.04
0.000241	16222.65	  8.78
0.000242	16211.32	 13.09
0.000243	16190.27	 13.09
0.000244	16171.83	 18.11
0.000245	16166.43	 18.11
0.000246	16161.90	  9.14
0.000247	16148.30	  8.42
0.000248	16139.40	 13.81
0.000249	16145.67	 11.65
0.000250	16155.60	  6.27
0.000251	16158.73	  6.27
0.000252	16163.25	 11.65
0.000253	16178.58	 13.45
0.000254	16196.88	  6.63
0.000255	16205.42	  3.76
0.000256	16210.13	  8.78
0.000257	16222.30	  9.86
0.000258	16233.42	  9.86
0.000259	16234.65	 12.73
0.000260	16235.20	 10.94
0.000261	16243.20	  8.06
0.000262	16252.75	  6.99
0.000263	16255.20	  5.91
0.000264	16255.05	 11.65
0.000265	16263.92	 19.19
0.000266	16278.02	 18.83
0.000267	16284.13	 16.32
0.000268	16285.00	 12.01
0.000269	16290.92	  5.91
0.000270	16298.05	  8.78
0.000271	16298.23	 13.09
0.000272	16294.43	  7.35
0.000273	16297.05	  4.47
0.000274	16307.65	  9.86
0.000275	16312.85	 10.94
0.000276	16308.85	  4.83
0.000277	16308.17	 -0.19
0.000278	16313.05	 -0.19
0.000279	16314.25	  1.24
0.000280	16310.07	  4.83
0.000281	16307.30	 13.45
0.000282	16309.05	 18.47
0.000283	16310.10	 12.73
0.000284	16307.13	  4.47
0.000285	16306.25	  3.04
0.000286	16312.18	  7.35
0.000287	16318.43	 12.01
0.000288	16318.75	 13.81
0.000289	16316.15	 13.45
0.000290	16312.52	 12.73
0.000291	16306.25	 12.73
0.000292	16303.45	 15.24
0.000293	16310.25	 18.11
0.000294	16316.17	 15.60
0.000295	16308.70	  8.06
0.000296	16294.25	  4.12
0.000297	16287.45	  8.78
0.000298	16289.90	 11.65
0.000299	16290.25	  6.99
0.000300	16286.05	  8.42
0.000301	16285.88	 14.88
0.000302	16283.10	 13.09
0.000303	16264.28	 12.37
0.000304	16239.88	 19.19
0.000305	16227.35	 20.63
0.000306	16220.40	 14.52
0.000307	16203.50	 10.22
0.000308	16178.40	 13.09
0.000309	16151.58	 19.55
0.000310	16112.23	 18.83
0.000311	16045.52	 13.45
0.000312	15954.10	 13.81
0.000313	15848.58	 14.52
0.000314	15720.58	 12.37
0.000315	15553.23	 14.88
0.000316	15353.85	 21.34
0.000317	15139.48	 29.60
0.000318	14909.95	 42.52
0.000319	14662.15	 63.34
0.000320	14412.40	 92.05
0.000321	14187.55	119.68
0.000322	13994.77	149.12
0.000323	13824.65	195.77
0.000324	13685.50	253.56
0.000325	13593.20	312.78
0.000326	13533.85	382.40
0.000327	13476.58	456.34
0.000328	13402.55	517.71
0.000329	13291.95	574.78
0.000330	13106.65	634.72
0.000331	12806.77	687.12
0.000332	12373.15	733.78
0.000333	11804.90	777.20
0.000334	11104.30	812.74
0.000335	10281.47	848.99
0.000336	9370.53	888.82
0.000337	8424.06	926.87
0.000338	7489.94	974.25
0.000339	6607.02	1035.98
0.000340	5823.36	1102.01
0.000341	5186.34	1178.11
0.000342	4716.15	1274.65
0.000343	4411.39	1388.07
0.000344	4261.62	1520.86
0.000345	4246.48	1678.78
0.000346	4326.58	1863.26
0.000347	4447.96	2095.11
0.000348	4568.30	2392.29
0.000349	4656.41	2743.30
0.000350	4682.53	3143.49
0.000351	4635.69	3590.69
0.000352	4525.80	4060.14
0.000353	4371.51	4529.59
0.000354	4205.90	4968.53
0.000355	4080.51	5321.34
0.000356	4042.02	5548.17
0.000357	4107.50	5637.18
0.000358	4266.15	5593.75
0.000359	4486.80	5452.34
0.000360	4722.76	5264.99
0.000361	4924.77	5081.59
0.000362	5066.87	4940.54
0.000363	5165.09	4860.51
0.000364	5252.86	4854.04
0.000365	5350.03	4918.29
0.000366	5460.79	5019.50
0.000367	5567.72	5136.51
0.000368	5630.24	5271.10
0.000369	5614.56	5405.69
0.000370	5528.01	5514.07
0.000371	5415.16	5589.09
0.000372	5324.61	5630.36
0.000373	5287.86	5641.13
0.000374	5313.11	5631.44
0.000375	5385.73	5612.42
0.000376	5472.81	5598.78
0.000377	5537.59	5593.75
0.000378	5565.81	5584.07
0.000379	5566.33	5572.22
0.000380	5560.06	5571.15
0.000381	5574.33	5578.32
0.000382	5612.82	5593.39
0.000383	5647.47	5616.72
0.000384	5654.61	5635.39
0.000385	5635.98	5651.18
0.000386	5612.82	5675.23
0.000387	5605.85	5698.19
0.000388	5620.49	5711.84
0.000389	5650.44	5719.01
0.000390	5684.91	5717.22
0.000391	5713.65	5713.99
0.000392	5734.37	5725.11
0.000393	5760.50	5743.06
0.000394	5804.55	5752.03
0.000395	5853.31	5755.26
0.000396	5885.36	5760.29
0.000397	5896.51	5769.98
0.000398	5895.98	5784.34
0.000399	5898.25	5796.18
0.000400	5912.18	5801.92
0.000401	5933.60	5806.23
0.000402	5948.58	5813.40
0.000403	5941.78	5824.17
0.000404	5913.22	5833.51
0.000405	5880.31	5840.68
0.000406	5859.06	5851.09
0.000407	5855.06	5858.99
0.000408	5863.24	5861.50
0.000409	5867.42	5870.11
0.000410	5858.54	5883.39
0.000411	5851.40	5891.65
0.000412	5862.72	5898.82
0.000413	5893.02	5905.64
0.000414	5936.04	5908.87
0.000415	5982.01	5917.49
0.000416	6021.89	5931.13
0.000417	6053.58	5937.59
0.000418	6080.75	5944.41
0.000419	6112.97	5957.33
0.000420	6152.85	5962.35
0.000421	6184.19	5964.51
0.000422	6192.20	5974.56
0.000423	6183.15	5982.81
0.000424	6171.48	5988.19
0.000425	6161.20	5994.65
0.000426	6148.32	5996.09
0.000427	6130.21	5996.09
0.000428	6107.05	6001.83
0.000429	6079.18	6009.73
0.000430	6049.05	6015.83
0.000431	6030.59	6017.27
0.000432	6035.99	6018.34
0.000433	6052.71	6031.26
0.000434	6064.38	6048.49
0.000435	6069.09	6055.31
0.000436	6072.04	6060.33
0.000437	6084.06	6068.23
0.000438	6105.66	6072.18
0.000439	6126.03	6078.28
0.000440	6141.01	6087.61
0.000441	6149.89	6094.07
0.000442	6154.94	6100.53
0.000443	6165.21	6102.68
0.000444	6183.67	6100.53
0.000445	6199.00	6106.28
0.000446	6202.31	6113.82
0.000447	6200.39	6116.68
0.000448	6206.48	6124.94
0.000449	6227.73	6133.56
0.000450	6251.59	6133.56
0.000451	6255.94	6133.56
0.000452	6242.71	6137.50
0.000453	6232.44	6142.17
0.000454	6233.65	6149.70
0.000455	6235.56	6157.96
0.000456	6224.59	6161.91
0.000457	6204.22	6164.42
0.000458	6187.85	6169.44
0.000459	6183.15	6176.98
0.000460	6188.02	6185.59
0.000461	6188.89	6192.41
0.000462	6179.32	6198.87
0.000463	6173.74	6208.56
0.000464	6187.68	6216.82
0.000465	6218.50	6220.41
0.000466	6245.84	6224.00
0.000467	6255.94	6227.59
0.000468	6261.34	6228.31
0.000469	6280.67	6227.59
0.000470	6314.45	6227.23
0.000471	6344.58	6229.38
0.000472	6355.03	6232.97
0.000473	6354.16	6235.48
0.000474	6362.34	6242.30
0.000475	6382.89	6251.64
0.000476	6394.56	6253.43
0.000477	6379.76	6257.38
0.000478	6354.86	6272.81
0.000479	6346.32	6282.14
0.000480	6353.46	6281.42
0.000481	6353.29	6286.81
0.000482	6331.00	6292.91
0.000483	6301.91	6291.83
0.000484	6288.51	6295.06
0.000485	6289.38	6305.47
0.000486	6289.20	6315.16
0.000487	6277.36	6320.19
0.000488	6260.99	6320.55
0.000489	6261.16	6323.78
0.000490	6282.41	6332.39
0.000491	6303.48	6335.62
0.000492	6306.44	6334.54
0.000493	6302.09	6338.85
0.000494	6312.72	6343.87
0.000495	6336.40	6348.54
0.000496	6352.59	6357.87
0.000497	6353.11	6366.12
0.000498	6349.11	6371.51
0.000499	6354.33	6376.17
0.000500	6368.26	6379.40
0.000501	6376.97	6385.86
0.000502	6373.49	6392.33
0.000503	6370.70	6394.48
0.000504	6381.15	6401.30
0.000505	6397.52	6408.12
0.000506	6404.32	6407.04
0.000507	6397.87	6408.83
0.000508	6396.48	6412.78
0.000509	6414.76	6412.06
0.000510	6432.70	6413.14
0.000511	6430.43	6414.94
0.000512	6419.99	6416.01
0.000513	6419.81	6423.55
0.000514	6433.22	6431.81
0.000515	6441.58	6435.76
0.000516	6430.09	6441.14
0.000517	6418.42	6442.57
0.000518	6423.99	6442.22
0.000519	6435.31	6451.91
0.000520	6439.67	6458.01
0.000521	6435.84	6451.90
0.000522	6434.44	6453.70
0.000523	6448.55	6464.82
0.000524	6469.62	6467.34
0.000525	6480.07	6464.11
0.000526	6483.90	6468.77
0.000527	6496.96	6479.54
0.000528	6520.64	6485.64
0.000529	6541.89	6487.79
0.000530	6551.29	6494.26
0.000531	6557.04	6501.43
0.000532	6572.72	6501.79
0.000533	6588.73	6502.87
0.000534	6590.82	6511.48
0.000535	6589.08	6516.51
0.000536	6591.35	6514.72
0.000537	6595.00	6517.94
0.000538	6599.18	6527.27
0.000539	6594.83	6538.04
0.000540	6584.03	6548.81
0.000541	6584.38	6553.84
0.000542	6593.26	6552.40
0.000543	6597.97	6550.24
0.000544	6601.80	6548.09
0.000545	6610.85	6547.37
0.000546	6624.95	6548.09
0.000547	6640.45	6545.58
0.000548	6646.38	6545.22
0.000549	6641.33	6553.11
0.000550	6642.02	6561.37
0.000551	6646.73	6564.24
0.000552	6638.72	6564.24
0.000553	6624.26	6563.17
0.000554	6614.16	6564.24
0.000555	6608.76	6566.76
0.000556	6605.98	6566.76
0.000557	6595.88	6570.34
0.000558	6582.29	6577.16
0.000559	6581.42	6575.73
0.000560	6585.42	6573.93
0.000561	6582.81	6584.70
0.000562	6582.29	6598.34
0.000563	6588.56	6605.16
0.000564	6599.53	6605.16
0.000565	6614.33	6599.77
0.000566	6625.48	6598.34
0.000567	6632.45	6604.08
0.000568	6647.60	6607.67
0.000569	6667.45	6609.47
0.000570	6677.72	6613.06
0.000571	6683.65	6615.57
0.000572	6694.10	6621.67
0.000573	6706.98	6629.57
0.000574	6719.69	6628.85
0.000575	6725.44	6629.56
0.000576	6726.48	6639.97
0.000577	6737.45	6645.00
0.000578	6751.56	6642.49
0.000579	6755.74	6645.00
0.000580	6760.09	6652.53
0.000581	6771.41	6658.99
0.000582	6783.26	6660.43
0.000583	6791.09	6659.71
0.000584	6795.27	6665.09
0.000585	6802.76	6668.68
0.000586	6815.65	6664.02
0.000587	6823.31	6666.89
0.000588	6821.39	6673.71
0.000589	6821.05	6669.76
0.000590	6829.23	6671.20
0.000591	6837.76	6681.97
0.000592	6839.16	6684.12
0.000593	6837.94	6687.35
0.000594	6842.47	6699.91
0.000595	6852.39	6706.73
0.000596	6859.36	6708.16
0.000597	6861.80	6709.96
0.000598	6867.02	6709.96
0.000599	6877.99	6711.75
0.000600	6889.48	6714.27
0.000601	6896.28	6717.85
0.000602	6904.98	6723.60
0.000603	6925.70	6719.29
0.000604	6946.77	6711.03
0.000605	6952.17	6715.34
0.000606	6953.57	6720.37
0.000607	6964.89	6718.93
0.000608	6977.08	6721.09
0.000609	6978.65	6721.80
0.000610	6971.85	6714.98
0.000611	6965.59	6708.52
0.000612	6960.88	6708.52
0.000613	6950.08	6716.06
0.000614	6933.89	6724.32
0.000615	6925.18	6725.39
0.000616	6927.80	6728.98
0.000617	6927.97	6742.26
0.000618	6920.31	6751.95
0.000619	6918.22	6752.67
0.000620	6926.06	6754.82
0.000621	6932.33	6757.34
0.000622	6929.36	6753.39
0.000623	6919.61	6752.67
0.000624	6913.52	6759.13
0.000625	6916.83	6761.64
0.000626	6920.66	6760.57
0.000627	6917.52	6760.57
0.000628	6916.13	6761.64
0.000629	6928.32	6767.03
0.000630	6942.25	6775.28
0.000631	6940.85	6781.74
0.000632	6939.81	6783.18
0.000633	6950.78	6778.51
0.000634	6955.14	6776.36
0.000635	6950.96	6781.02
0.000636	6955.48	6785.33
0.000637	6968.37	6791.79
0.000638	6979.17	6800.76
0.000639	6986.31	6800.76
0.000640	6992.58	6800.05
0.000641	7003.73	6807.58
0.000642	7024.45	6806.15
0.000643	7042.04	6798.25
0.000644	7047.26	6800.40
0.000645	7057.19	6801.84
0.000646	7074.77	6802.19
0.000647	7080.00	6812.60
0.000648	7077.39	6817.63
0.000649	7082.96	6813.33
0.000650	7089.23	6816.20
0.000651	7086.61	6823.02
0.000652	7078.95	6827.68
0.000653	7070.42	6830.91
0.000654	7064.33	6829.48
0.000655	7064.15	6829.83
0.000656	7061.19	6831.99
0.000657	7048.66	6828.76
0.000658	7044.48	6831.27
0.000659	7052.31	6842.39
0.000660	7047.09	6849.57
0.000661	7033.67	6851.73
0.000662	7034.72	6851.73
0.000663	7037.68	6853.16
0.000664	7029.67	6857.11
0.000665	7026.18	6852.09
0.000666	7029.32	6843.11
0.000667	7025.32	6849.93
0.000668	7019.92	6861.78
0.000669	7018.00	6865.36
0.000670	7011.56	6873.62
0.000671	7010.52	6881.52
0.000672	7017.66	6879.01
0.000673	7010.86	6880.80
0.000674	6995.72	6887.62
0.000675	6994.67	6889.41
0.000676	6996.59	6890.49
0.000677	6990.49	6890.13
0.000678	6992.92	6887.62
0.000679	7005.47	6887.62
0.000680	7008.95	6885.10
0.000681	7005.64	6884.39
0.000682	7011.91	6895.87
0.000683	7023.40	6905.56
0.000684	7034.02	6902.33
0.000685	7049.52	6899.46
0.000686	7060.67	6902.69
0.000687	7059.62	6905.56
0.000688	7061.89	6902.33
0.000689	7071.47	6894.80
0.000690	7073.03	6897.31
0.000691	7069.03	6905.20
0.000692	7072.16	6903.05
0.000693	7072.68	6905.93
0.000694	7065.19	6918.49
0.000695	7066.59	6919.20
0.000696	7069.55	6915.97
0.000697	7056.84	6926.02
0.000698	7047.78	6932.48
0.000699	7052.66	6924.95
0.000700	7050.92	6919.56
0.000701	7042.73	6920.64
0.000702	7042.73	6922.79
0.000703	7045.17	6926.74
0.000704	7044.65	6928.53
0.000705	7049.87	6928.89
0.000706	7057.53	6931.41
0.000707	7056.66	6929.61
0.000708	7054.74	6929.26
0.000709	7057.88	6938.94
0.000710	7054.58	6941.10
0.000711	7045.52	6931.05
0.000712	7044.99	6930.69
0.000713	7048.66	6938.23
0.000714	7042.74	6940.02
0.000715	7036.11	6943.97
0.000716	7039.42	6950.79
0.000717	7035.24	6950.07
0.000718	7020.27	6946.84
0.000719	7016.78	6950.07
0.000720	7016.61	6957.96
0.000721	7005.11	6962.27
0.000722	7000.06	6958.32
0.000723	7003.89	6954.73
0.000724	7001.63	6960.12
0.000725	6999.72	6965.86
0.000726	7005.12	6961.56
0.000727	7009.82	6954.74
0.000728	7011.21	6957.61
0.000729	7013.30	6967.66
0.000730	7014.35	6975.91
0.000731	7012.61	6979.86
0.000732	7015.40	6981.29
0.000733	7024.10	6979.14
0.000734	7025.66	6974.47
0.000735	7019.92	6974.48
0.000736	7022.71	6976.27
0.000737	7030.72	6974.83
0.000738	7034.89	6978.06
0.000739	7049.87	6983.09
0.000740	7075.12	6980.57
0.000741	7085.57	6981.29
0.000742	7086.79	6988.83
0.000743	7099.85	6989.91
0.000744	7114.83	6988.83
0.000745	7124.75	6992.06
0.000746	7144.78	6991.70
0.000747	7169.16	6990.98
0.000748	7178.22	6993.85
0.000749	7178.05	6992.78
0.000750	7183.10	6990.63
0.000751	7189.89	6993.14
0.000752	7191.98	6997.80
0.000753	7194.76	7005.70
0.000754	7202.08	7012.16
0.000755	7206.43	7008.57
0.000756	7206.95	7000.68
0.000757	7211.83	6994.93
0.000758	7217.58	6993.14
0.000759	7219.14	6998.88
0.000760	7225.06	7001.39
0.000761	7236.73	6993.50
0.000762	7241.96	6991.34
0.000763	7241.61	6996.73
0.000764	7244.57	6997.09
0.000765	7240.74	6997.44
0.000766	7228.20	7002.82
0.000767	7224.54	7007.13
0.000768	7224.19	7009.29
0.000769	7215.49	7011.44
0.000770	7209.91	7013.95
0.000771	7213.40	7014.67
0.000772	7216.70	7008.57
0.000773	7213.57	7001.40
0.000774	7212.87	7004.27
0.000775	7217.58	7011.44
0.000776	7212.35	7015.03
0.000777	7203.81	7017.90
0.000778	7203.99	7017.55
0.000779	7200.51	7013.96
0.000780	7194.76	7014.31
0.000781	7195.98	7014.67
0.000782	7200.68	7009.65
0.000783	7204.51	7002.11
0.000784	7205.56	6993.50
0.000785	7209.39	6989.55
0.000786	7212.35	6996.01
0.000787	7207.48	7003.55
0.000788	7203.99	7006.06
0.000789	7197.55	7011.81
0.000790	7184.31	7017.90
0.000791	7181.18	7017.18
0.000792	7189.71	7017.55
0.000793	7198.59	7018.98
0.000794	7203.47	7013.96
0.000795	7209.39	7007.49
0.000796	7220.19	7003.55
0.000797	7223.50	7002.47
0.000798	7220.19	7007.13
0.000799	7223.32	7011.80
0.000800	7221.58	7012.16
0.000801	7211.66	7011.44
0.000802	7210.26	7009.29
0.000803	7213.92	7010.37
0.000804	7213.05	7014.32
0.000805	7216.53	7008.58
0.000806	7230.81	7000.68
0.000807	7246.49	7002.11
0.000808	7256.06	6999.60
0.000809	7264.94	6991.34
0.000810	7272.95	6991.35
0.000811	7268.94	6998.88
0.000812	7259.37	7005.70
0.000813	7260.07	7007.85
0.000814	7261.29	7009.65
0.000815	7253.97	7013.59
0.000816	7254.15	7008.21
0.000817	7266.86	6994.93
0.000818	7278.35	6991.34
0.000819	7286.19	6993.14
0.000820	7299.25	6989.91
0.000821	7315.80	6991.70
0.000822	7326.76	6995.29
0.000823	7334.25	6987.40
0.000824	7340.87	6980.93
0.000825	7340.69	6985.96
0.000826	7335.30	6990.63
0.000827	7331.12	6989.91
0.000828	7327.29	6986.32
0.000829	7320.15	6981.30
0.000830	7311.09	6976.27
0.000831	7302.73	6969.09
0.000832	7290.89	6962.27
0.000833	7276.78	6960.83
0.000834	7268.25	6958.68
0.000835	7259.37	6953.66
0.000836	7242.66	6955.09
0.000837	7226.28	6959.76
0.000838	7216.88	6957.97
0.000839	7207.30	6952.94
0.000840	7191.97	6947.56
0.000841	7178.91	6942.53
0.000842	7172.30	6938.23
0.000843	7162.89	6929.97
0.000844	7149.31	6922.43
0.000845	7140.08	6918.48
0.000846	7133.28	6908.07
0.000847	7120.92	6895.51
0.000848	7105.25	6892.64
0.000849	7091.14	6893.00
0.000850	7074.60	6889.77
0.000851	7056.49	6883.31
0.000852	7046.04	6868.95
0.000853	7036.81	6851.37
0.000854	7014.69	6838.09
0.000855	6985.61	6820.14
0.000856	6953.22	6796.45
0.000857	6902.72	6775.28
0.000858	6828.70	6748.72
0.000859	6726.48	6707.81
0.000860	6570.45	6648.23
0.000861	6329.95	6554.55
0.000862	5972.78	6404.53
0.000863	5461.32	6163.70
0.000864	4762.47	5786.49
0.000865	3861.61	5240.59
0.000866	2791.48	4498.73
0.000867	1641.95	3541.52
0.000868	537.69	2417.42
0.000869	-374.49	1255.63
0.000870	-958.05	210.85
0.000871	-1161.80	-567.27
0.000872	-1056.96	-971.04
0.000873	-793.48	-1009.44
0.000874	-536.79	-815.27
0.000875	-414.19	-569.42
0.000876	-463.48	-428.37
0.000877	-624.91	-464.26
0.000878	-794.18	-637.25
0.000879	-899.88	-850.09
0.000880	-939.07	-1027.03
0.000881	-940.63	-1149.77
0.000882	-928.79	-1246.68
0.000883	-910.86	-1340.71
0.000884	-867.32	-1416.08
0.000885	-779.55	-1442.64
0.000886	-661.65	-1413.93
0.000887	-541.49	-1362.61
0.000888	-434.22	-1328.87
0.000889	-342.27	-1308.05
0.000890	-265.82	-1252.42
0.000891	-208.53	-1118.91
0.000892	-170.21	-908.23
0.000893	-139.22	-670.99
0.000894	-103.69	-460.31
0.000895	-62.07	-287.68
0.000896	-20.45	-157.39
0.000897	 10.38	-100.69
0.000898	 37.19	-134.42
0.000899	 86.13	-219.48
0.000900	146.91	-269.01
0.000901	171.98	-211.23
0.000902	150.21	-76.64
0.000903	126.53	 32.47
0.000904	144.99	 60.11
0.000905	195.67	 18.47
0.000906	230.50	-49.00
0.000907	232.59	-99.25
0.000908	251.57	-125.09
0.000909	340.56	-122.22
0.000910	471.17	-64.44
0.000911	562.94	 19.91
0.000912	577.92	 48.62
0.000913	548.14	 -0.19
0.000914	511.39	-61.56
0.000915	445.39	-63.72
0.000916	326.10	 -8.09
0.000917	206.29	 36.42
0.000918	153.52	 37.85
0.000919	166.24	 34.98
0.000920	189.75	 47.54
0.000921	192.01	 48.98
0.000922	196.02	 25.65
0.000923	213.78	  5.91
0.000924	212.91	 25.65
0.000925	185.57	 59.75
0.000926	179.65	 48.26
0.000927	225.45	  4.83
0.000928	279.26	-12.39
0.000929	290.40	 -9.16
0.000930	282.74	-29.62
0.000931	302.59	-75.92
0.000932	324.53	-103.56
0.000933	290.58	-80.59
0.000934	224.23	-47.21
0.000935	204.20	-61.92
0.000936	220.57	-94.58
0.000937	183.48	-84.89
0.000938	 91.70	-63.00
0.000939	 46.08	-84.18
0.000940	 71.15	-115.40
0.000941	 68.71	-92.43
0.000942	-15.05	-17.06
